2014-4-7        20:36

Voltage(V)           Current(A)           Current_density(mA/cm^2)           ABS(Current_density)

-5.000260E-1        -4.672770E-4        -7.787950E+0        7.787950E+0
-4.906400E-1        -4.656270E-4        -7.760450E+0        7.760450E+0
-4.812540E-1        -4.643710E-4        -7.739517E+0        7.739517E+0
-4.718690E-1        -4.629170E-4        -7.715283E+0        7.715283E+0
-4.625180E-1        -4.621800E-4        -7.703000E+0        7.703000E+0
-4.531370E-1        -4.606240E-4        -7.677067E+0        7.677067E+0
-4.437520E-1        -4.596260E-4        -7.660433E+0        7.660433E+0
-4.343630E-1        -4.585060E-4        -7.641767E+0        7.641767E+0
-4.249780E-1        -4.575180E-4        -7.625300E+0        7.625300E+0
-4.156310E-1        -4.564630E-4        -7.607717E+0        7.607717E+0
-4.062430E-1        -4.553460E-4        -7.589100E+0        7.589100E+0
-3.968590E-1        -4.541490E-4        -7.569150E+0        7.569150E+0
-3.874700E-1        -4.532060E-4        -7.553433E+0        7.553433E+0
-3.781220E-1        -4.520880E-4        -7.534800E+0        7.534800E+0
-3.687340E-1        -4.500850E-4        -7.501417E+0        7.501417E+0
-3.593480E-1        -4.486940E-4        -7.478233E+0        7.478233E+0
-3.499620E-1        -4.477000E-4        -7.461667E+0        7.461667E+0
-3.406110E-1        -4.466930E-4        -7.444883E+0        7.444883E+0
-3.312260E-1        -4.457870E-4        -7.429783E+0        7.429783E+0
-3.218390E-1        -4.450540E-4        -7.417567E+0        7.417567E+0
-3.124510E-1        -4.439900E-4        -7.399833E+0        7.399833E+0
-3.030700E-1        -4.433200E-4        -7.388667E+0        7.388667E+0
-2.937190E-1        -4.418060E-4        -7.363433E+0        7.363433E+0
-2.843290E-1        -4.408510E-4        -7.347517E+0        7.347517E+0
-2.749430E-1        -4.395010E-4        -7.325017E+0        7.325017E+0
-2.655530E-1        -4.379370E-4        -7.298950E+0        7.298950E+0
-2.562060E-1        -4.369750E-4        -7.282917E+0        7.282917E+0
-2.468190E-1        -4.360950E-4        -7.268250E+0        7.268250E+0
-2.374340E-1        -4.352250E-4        -7.253750E+0        7.253750E+0
-2.280480E-1        -4.342470E-4        -7.237450E+0        7.237450E+0
-2.186620E-1        -4.329620E-4        -7.216033E+0        7.216033E+0
-2.093090E-1        -4.317610E-4        -7.196017E+0        7.196017E+0
-1.999630E-1        -4.310670E-4        -7.184450E+0        7.184450E+0
-1.905870E-1        -4.300240E-4        -7.167067E+0        7.167067E+0
-1.812150E-1        -4.287950E-4        -7.146583E+0        7.146583E+0
-1.718420E-1        -4.274800E-4        -7.124667E+0        7.124667E+0
-1.624720E-1        -4.260520E-4        -7.100867E+0        7.100867E+0
-1.530980E-1        -4.250680E-4        -7.084467E+0        7.084467E+0
-1.437220E-1        -4.243310E-4        -7.072183E+0        7.072183E+0
-1.343450E-1        -4.234390E-4        -7.057317E+0        7.057317E+0
-1.249730E-1        -4.223160E-4        -7.038600E+0        7.038600E+0
-1.155980E-1        -4.210760E-4        -7.017933E+0        7.017933E+0
-1.062210E-1        -4.202270E-4        -7.003783E+0        7.003783E+0
-9.684430E-2        -4.189620E-4        -6.982700E+0        6.982700E+0
-8.746560E-2        -4.179260E-4        -6.965433E+0        6.965433E+0
-7.809380E-2        -4.165630E-4        -6.942717E+0        6.942717E+0
-6.871510E-2        -4.152450E-4        -6.920750E+0        6.920750E+0
-5.933980E-2        -4.135420E-4        -6.892367E+0        6.892367E+0
-4.996210E-2        -4.122770E-4        -6.871283E+0        6.871283E+0
-4.058650E-2        -4.112110E-4        -6.853517E+0        6.853517E+0
-3.120730E-2        -4.101510E-4        -6.835850E+0        6.835850E+0
-2.182690E-2        -4.096640E-4        -6.827733E+0        6.827733E+0
-1.244740E-2        -4.092000E-4        -6.820000E+0        6.820000E+0
-3.066950E-3        -4.081620E-4        -6.802700E+0        6.802700E+0
6.334190E-3        -4.069710E-4        -6.782850E+0        6.782850E+0
1.570970E-2        -4.057370E-4        -6.762283E+0        6.762283E+0
2.509050E-2        -4.042800E-4        -6.738000E+0        6.738000E+0
3.446740E-2        -4.027390E-4        -6.712317E+0        6.712317E+0
4.384350E-2        -4.009510E-4        -6.682517E+0        6.682517E+0
5.322020E-2        -3.992690E-4        -6.654483E+0        6.654483E+0
6.259710E-2        -3.978990E-4        -6.631650E+0        6.631650E+0
7.197270E-2        -3.967870E-4        -6.613117E+0        6.613117E+0
8.135280E-2        -3.957440E-4        -6.595733E+0        6.595733E+0
9.072870E-2        -3.944660E-4        -6.574433E+0        6.574433E+0
1.001030E-1        -3.931700E-4        -6.552833E+0        6.552833E+0
1.094830E-1        -3.911320E-4        -6.518867E+0        6.518867E+0
1.188550E-1        -3.892700E-4        -6.487833E+0        6.487833E+0
1.282290E-1        -3.871760E-4        -6.452933E+0        6.452933E+0
1.376070E-1        -3.854440E-4        -6.424067E+0        6.424067E+0
1.469750E-1        -3.838410E-4        -6.397350E+0        6.397350E+0
1.563490E-1        -3.821840E-4        -6.369733E+0        6.369733E+0
1.657190E-1        -3.802860E-4        -6.338100E+0        6.338100E+0
1.750950E-1        -3.786220E-4        -6.310367E+0        6.310367E+0
1.844640E-1        -3.762200E-4        -6.270333E+0        6.270333E+0
1.938390E-1        -3.737960E-4        -6.229933E+0        6.229933E+0
2.031950E-1        -3.711340E-4        -6.185567E+0        6.185567E+0
2.125480E-1        -3.682450E-4        -6.137417E+0        6.137417E+0
2.219350E-1        -3.646920E-4        -6.078200E+0        6.078200E+0
2.313250E-1        -3.616880E-4        -6.028133E+0        6.028133E+0
2.407050E-1        -3.586180E-4        -5.976967E+0        5.976967E+0
2.500590E-1        -3.550360E-4        -5.917267E+0        5.917267E+0
2.594450E-1        -3.503690E-4        -5.839483E+0        5.839483E+0
2.688350E-1        -3.453580E-4        -5.755967E+0        5.755967E+0
2.782190E-1        -3.398870E-4        -5.664783E+0        5.664783E+0
2.875730E-1        -3.338560E-4        -5.564267E+0        5.564267E+0
2.969600E-1        -3.269760E-4        -5.449600E+0        5.449600E+0
3.063460E-1        -3.197350E-4        -5.328917E+0        5.328917E+0
3.157290E-1        -3.116440E-4        -5.194067E+0        5.194067E+0
3.250820E-1        -3.026630E-4        -5.044383E+0        5.044383E+0
3.344680E-1        -2.928690E-4        -4.881150E+0        4.881150E+0
3.438590E-1        -2.820180E-4        -4.700300E+0        4.700300E+0
3.532450E-1        -2.705290E-4        -4.508817E+0        4.508817E+0
3.625990E-1        -2.583280E-4        -4.305467E+0        4.305467E+0
3.719850E-1        -2.452890E-4        -4.088150E+0        4.088150E+0
3.813740E-1        -2.313880E-4        -3.856467E+0        3.856467E+0
3.907590E-1        -2.167620E-4        -3.612700E+0        3.612700E+0
4.001110E-1        -2.014950E-4        -3.358250E+0        3.358250E+0
4.094960E-1        -1.852940E-4        -3.088233E+0        3.088233E+0
4.188850E-1        -1.683270E-4        -2.805450E+0        2.805450E+0
4.282650E-1        -1.506730E-4        -2.511217E+0        2.511217E+0
4.376190E-1        -1.325300E-4        -2.208833E+0        2.208833E+0
4.470090E-1        -1.136840E-4        -1.894733E+0        1.894733E+0
4.563940E-1        -9.430050E-5        -1.571675E+0        1.571675E+0
4.657410E-1        -7.442240E-5        -1.240373E+0        1.240373E+0
4.751300E-1        -5.338040E-5        -8.896733E-1        8.896733E-1
4.845180E-1        -3.236940E-5        -5.394900E-1        5.394900E-1
4.939050E-1        -1.083510E-5        -1.805850E-1        1.805850E-1
5.032460E-1        1.108440E-5        1.847400E-1        1.847400E-1
5.126320E-1        3.360460E-5        5.600767E-1        5.600767E-1
5.220170E-1        5.661500E-5        9.435833E-1        9.435833E-1
5.314040E-1        8.008750E-5        1.334792E+0        1.334792E+0
5.407490E-1        1.041140E-4        1.735233E+0        1.735233E+0
5.501430E-1        1.287820E-4        2.146367E+0        2.146367E+0
5.595330E-1        1.534890E-4        2.558150E+0        2.558150E+0
5.689190E-1        1.789510E-4        2.982517E+0        2.982517E+0
5.782680E-1        2.051040E-4        3.418400E+0        3.418400E+0
5.876570E-1        2.321540E-4        3.869233E+0        3.869233E+0
5.970440E-1        2.603050E-4        4.338417E+0        4.338417E+0
6.064250E-1        2.893730E-4        4.822883E+0        4.822883E+0
6.157750E-1        3.187620E-4        5.312700E+0        5.312700E+0
6.251620E-1        3.497310E-4        5.828850E+0        5.828850E+0
6.345520E-1        3.816600E-4        6.361000E+0        6.361000E+0
6.439370E-1        4.145050E-4        6.908417E+0        6.908417E+0
6.532920E-1        4.478480E-4        7.464133E+0        7.464133E+0
6.626820E-1        4.819910E-4        8.033183E+0        8.033183E+0
6.720660E-1        5.156310E-4        8.593850E+0        8.593850E+0
6.814480E-1        5.487430E-4        9.145717E+0        9.145717E+0
6.907990E-1        5.816020E-4        9.693367E+0        9.693367E+0
7.001840E-1        6.152830E-4        1.025472E+1        1.025472E+1
7.095710E-1        6.494210E-4        1.082368E+1        1.082368E+1
7.189540E-1        6.829300E-4        1.138217E+1        1.138217E+1
7.283060E-1        7.158080E-4        1.193013E+1        1.193013E+1
7.376920E-1        7.448330E-4        1.241388E+1        1.241388E+1
7.470790E-1        7.746770E-4        1.291128E+1        1.291128E+1
7.564650E-1        8.044090E-4        1.340682E+1        1.340682E+1
7.658110E-1        8.315250E-4        1.385875E+1        1.385875E+1
7.751990E-1        8.488000E-4        1.414667E+1        1.414667E+1
7.845850E-1        8.400820E-4        1.400137E+1        1.400137E+1
7.939690E-1        7.473830E-4        1.245638E+1        1.245638E+1
8.033180E-1        7.166500E-4        1.194417E+1        1.194417E+1
8.127060E-1        6.176390E-4        1.029398E+1        1.029398E+1
8.220930E-1        3.180850E-4        5.301417E+0        5.301417E+0
8.314730E-1        2.809010E-4        4.681683E+0        4.681683E+0
8.408250E-1        2.607750E-4        4.346250E+0        4.346250E+0
8.502140E-1        2.435060E-4        4.058433E+0        4.058433E+0
8.595990E-1        2.329330E-4        3.882217E+0        3.882217E+0
8.689790E-1        2.533380E-4        4.222300E+0        4.222300E+0
8.783290E-1        2.609900E-4        4.349833E+0        4.349833E+0
8.877150E-1        2.663890E-4        4.439817E+0        4.439817E+0
8.971010E-1        2.660160E-4        4.433600E+0        4.433600E+0
9.064470E-1        2.520550E-4        4.200917E+0        4.200917E+0
9.158310E-1        2.421890E-4        4.036483E+0        4.036483E+0
9.252190E-1        2.514540E-4        4.190900E+0        4.190900E+0
9.346040E-1        2.755400E-4        4.592333E+0        4.592333E+0
9.439530E-1        2.632550E-4        4.387583E+0        4.387583E+0
9.533320E-1        2.579200E-4        4.298667E+0        4.298667E+0
9.627270E-1        2.700130E-4        4.500217E+0        4.500217E+0
9.721080E-1        2.728720E-4        4.547867E+0        4.547867E+0
9.814570E-1        2.866150E-4        4.776917E+0        4.776917E+0
9.908390E-1        2.990850E-4        4.984750E+0        4.984750E+0
1.000230E+0        3.092530E-4        5.154217E+0        5.154217E+0



Voc (V)                4.939050E-1

Jsc (ma/cm^2)        -6.802700E+0

Fill Factor        4.880870E-1

Power convertion efficiency        -1.639917E-2

Lamp Power        1.000000E+2



