2014-4-7        20:52

Voltage(V)           Current(A)           Current_density(mA/cm^2)           ABS(Current_density)

-5.000720E-1        -3.083360E-7        -5.138933E-3        5.138933E-3
-4.906880E-1        -3.032390E-7        -5.053983E-3        5.053983E-3
-4.813040E-1        -2.983570E-7        -4.972617E-3        4.972617E-3
-4.719180E-1        -2.931750E-7        -4.886250E-3        4.886250E-3
-4.625690E-1        -2.880070E-7        -4.800117E-3        4.800117E-3
-4.531890E-1        -2.832360E-7        -4.720600E-3        4.720600E-3
-4.438020E-1        -2.782990E-7        -4.638317E-3        4.638317E-3
-4.344160E-1        -2.732550E-7        -4.554250E-3        4.554250E-3
-4.250290E-1        -2.689580E-7        -4.482633E-3        4.482633E-3
-4.156820E-1        -2.640870E-7        -4.401450E-3        4.401450E-3
-4.062950E-1        -2.594900E-7        -4.324833E-3        4.324833E-3
-3.969110E-1        -2.550590E-7        -4.250983E-3        4.250983E-3
-3.875220E-1        -2.505760E-7        -4.176267E-3        4.176267E-3
-3.781760E-1        -2.463260E-7        -4.105433E-3        4.105433E-3
-3.687890E-1        -2.420760E-7        -4.034600E-3        4.034600E-3
-3.594010E-1        -2.378360E-7        -3.963933E-3        3.963933E-3
-3.500150E-1        -2.333150E-7        -3.888583E-3        3.888583E-3
-3.406670E-1        -2.291950E-7        -3.819917E-3        3.819917E-3
-3.312810E-1        -2.253830E-7        -3.756383E-3        3.756383E-3
-3.218920E-1        -2.215890E-7        -3.693150E-3        3.693150E-3
-3.125050E-1        -2.172320E-7        -3.620533E-3        3.620533E-3
-3.031250E-1        -2.133290E-7        -3.555483E-3        3.555483E-3
-2.937720E-1        -2.096460E-7        -3.494100E-3        3.494100E-3
-2.843840E-1        -2.054570E-7        -3.424283E-3        3.424283E-3
-2.750000E-1        -2.018300E-7        -3.363833E-3        3.363833E-3
-2.656110E-1        -1.979200E-7        -3.298667E-3        3.298667E-3
-2.562630E-1        -1.940880E-7        -3.234800E-3        3.234800E-3
-2.468760E-1        -1.905020E-7        -3.175033E-3        3.175033E-3
-2.374950E-1        -1.865860E-7        -3.109767E-3        3.109767E-3
-2.281100E-1        -1.830320E-7        -3.050533E-3        3.050533E-3
-2.187220E-1        -1.793940E-7        -2.989900E-3        2.989900E-3
-2.093690E-1        -1.756310E-7        -2.927183E-3        2.927183E-3
-1.999820E-1        -1.719030E-7        -2.865050E-3        2.865050E-3
-1.906070E-1        -1.686190E-7        -2.810317E-3        2.810317E-3
-1.812340E-1        -1.651170E-7        -2.751950E-3        2.751950E-3
-1.718630E-1        -1.614200E-7        -2.690333E-3        2.690333E-3
-1.624950E-1        -1.582570E-7        -2.637617E-3        2.637617E-3
-1.531200E-1        -1.547790E-7        -2.579650E-3        2.579650E-3
-1.437440E-1        -1.512490E-7        -2.520817E-3        2.520817E-3
-1.343700E-1        -1.482430E-7        -2.470717E-3        2.470717E-3
-1.249970E-1        -1.446630E-7        -2.411050E-3        2.411050E-3
-1.156220E-1        -1.413020E-7        -2.355033E-3        2.355033E-3
-1.062480E-1        -1.379740E-7        -2.299567E-3        2.299567E-3
-9.687080E-2        -1.347520E-7        -2.245867E-3        2.245867E-3
-8.749690E-2        -1.313400E-7        -2.189000E-3        2.189000E-3
-7.812200E-2        -1.283240E-7        -2.138733E-3        2.138733E-3
-6.874320E-2        -1.250490E-7        -2.084150E-3        2.084150E-3
-5.936720E-2        -1.220430E-7        -2.034050E-3        2.034050E-3
-4.998770E-2        -1.187770E-7        -1.979617E-3        1.979617E-3
-4.061400E-2        -1.157300E-7        -1.928833E-3        1.928833E-3
-3.123470E-2        -1.125590E-7        -1.875983E-3        1.875983E-3
-2.185700E-2        -1.094570E-7        -1.824283E-3        1.824283E-3
-1.247710E-2        -1.065800E-7        -1.776333E-3        1.776333E-3
-3.097180E-3        -1.035690E-7        -1.726150E-3        1.726150E-3
6.144400E-3        -1.008710E-7        -1.681183E-3        1.681183E-3
1.552030E-2        -9.762410E-8        -1.627068E-3        1.627068E-3
2.489710E-2        -9.502410E-8        -1.583735E-3        1.583735E-3
3.427570E-2        -9.228430E-8        -1.538072E-3        1.538072E-3
4.365060E-2        -8.947190E-8        -1.491198E-3        1.491198E-3
5.303170E-2        -8.663710E-8        -1.443952E-3        1.443952E-3
6.240610E-2        -8.412830E-8        -1.402138E-3        1.402138E-3
7.178140E-2        -8.152030E-8        -1.358672E-3        1.358672E-3
8.115640E-2        -7.833740E-8        -1.305623E-3        1.305623E-3
9.053320E-2        -7.576730E-8        -1.262788E-3        1.262788E-3
9.990570E-2        -7.303690E-8        -1.217282E-3        1.217282E-3
1.092860E-1        -7.056380E-8        -1.176063E-3        1.176063E-3
1.186580E-1        -6.801320E-8        -1.133553E-3        1.133553E-3
1.280320E-1        -6.535550E-8        -1.089258E-3        1.089258E-3
1.374030E-1        -6.281640E-8        -1.046940E-3        1.046940E-3
1.467770E-1        -6.014330E-8        -1.002388E-3        1.002388E-3
1.561490E-1        -5.748340E-8        -9.580567E-4        9.580567E-4
1.655220E-1        -5.495750E-8        -9.159583E-4        9.159583E-4
1.748960E-1        -5.263920E-8        -8.773200E-4        8.773200E-4
1.842670E-1        -4.995990E-8        -8.326650E-4        8.326650E-4
1.936370E-1        -4.761170E-8        -7.935283E-4        7.935283E-4
2.030340E-1        -4.529560E-8        -7.549267E-4        7.549267E-4
2.123830E-1        -4.278800E-8        -7.131333E-4        7.131333E-4
2.217740E-1        -4.037390E-8        -6.728983E-4        6.728983E-4
2.311600E-1        -3.795420E-8        -6.325700E-4        6.325700E-4
2.405420E-1        -3.557220E-8        -5.928700E-4        5.928700E-4
2.498920E-1        -3.329380E-8        -5.548967E-4        5.548967E-4
2.592790E-1        -3.102230E-8        -5.170383E-4        5.170383E-4
2.686670E-1        -2.867090E-8        -4.778483E-4        4.778483E-4
2.780520E-1        -2.629160E-8        -4.381933E-4        4.381933E-4
2.874020E-1        -2.411680E-8        -4.019467E-4        4.019467E-4
2.967890E-1        -2.187760E-8        -3.646267E-4        3.646267E-4
3.061740E-1        -1.958810E-8        -3.264683E-4        3.264683E-4
3.155610E-1        -1.731920E-8        -2.886533E-4        2.886533E-4
3.249130E-1        -1.517840E-8        -2.529733E-4        2.529733E-4
3.343050E-1        -1.291390E-8        -2.152317E-4        2.152317E-4
3.436940E-1        -1.071410E-8        -1.785683E-4        1.785683E-4
3.530790E-1        -8.578300E-9        -1.429717E-4        1.429717E-4
3.624290E-1        -6.365780E-9        -1.060963E-4        1.060963E-4
3.718130E-1        -5.314410E-9        -8.857350E-5        8.857350E-5
3.812020E-1        -3.802740E-9        -6.337900E-5        6.337900E-5
3.905820E-1        -2.033790E-9        -3.389650E-5        3.389650E-5
3.999370E-1        -1.875040E-10        -3.125067E-6        3.125067E-6
4.093250E-1        1.582870E-9        2.638117E-5        2.638117E-5
4.187110E-1        1.466700E-9        2.444500E-5        2.444500E-5
4.280930E-1        4.125380E-9        6.875633E-5        6.875633E-5
4.374400E-1        6.185190E-9        1.030865E-4        1.030865E-4
4.468290E-1        8.111610E-9        1.351935E-4        1.351935E-4
4.562150E-1        1.010950E-8        1.684917E-4        1.684917E-4
4.655620E-1        1.202160E-8        2.003600E-4        2.003600E-4
4.749520E-1        1.483360E-8        2.472267E-4        2.472267E-4
4.843370E-1        2.068350E-8        3.447250E-4        3.447250E-4
4.937250E-1        1.928580E-8        3.214300E-4        3.214300E-4
5.030700E-1        2.179830E-8        3.633050E-4        3.633050E-4
5.124600E-1        2.687470E-8        4.479117E-4        4.479117E-4
5.218470E-1        2.549040E-8        4.248400E-4        4.248400E-4
5.312330E-1        2.783320E-8        4.638867E-4        4.638867E-4
5.405800E-1        3.157330E-8        5.262217E-4        5.262217E-4
5.499710E-1        3.157530E-8        5.262550E-4        5.262550E-4
5.593610E-1        3.381370E-8        5.635617E-4        5.635617E-4
5.687390E-1        3.573070E-8        5.955117E-4        5.955117E-4
5.780910E-1        3.756380E-8        6.260633E-4        6.260633E-4
5.874800E-1        3.969370E-8        6.615617E-4        6.615617E-4
5.968640E-1        4.152180E-8        6.920300E-4        6.920300E-4
6.062460E-1        4.349260E-8        7.248767E-4        7.248767E-4
6.155970E-1        4.559350E-8        7.598917E-4        7.598917E-4
6.249830E-1        4.745830E-8        7.909717E-4        7.909717E-4
6.343720E-1        4.948880E-8        8.248133E-4        8.248133E-4
6.437560E-1        5.159840E-8        8.599733E-4        8.599733E-4
6.531060E-1        5.353190E-8        8.921983E-4        8.921983E-4
6.624930E-1        5.553640E-8        9.256067E-4        9.256067E-4
6.718790E-1        5.766420E-8        9.610700E-4        9.610700E-4
6.812610E-1        5.961320E-8        9.935533E-4        9.935533E-4
6.906110E-1        6.167010E-8        1.027835E-3        1.027835E-3
6.999980E-1        6.386400E-8        1.064400E-3        1.064400E-3
7.093860E-1        6.597050E-8        1.099508E-3        1.099508E-3
7.187650E-1        6.802700E-8        1.133783E-3        1.133783E-3
7.281170E-1        7.021560E-8        1.170260E-3        1.170260E-3
7.375040E-1        7.231030E-8        1.205172E-3        1.205172E-3
7.468910E-1        7.454740E-8        1.242457E-3        1.242457E-3
7.562730E-1        7.682450E-8        1.280408E-3        1.280408E-3
7.656200E-1        7.899940E-8        1.316657E-3        1.316657E-3
7.750050E-1        8.129200E-8        1.354867E-3        1.354867E-3
7.843890E-1        8.361140E-8        1.393523E-3        1.393523E-3
7.937720E-1        8.591130E-8        1.431855E-3        1.431855E-3
8.031220E-1        8.828900E-8        1.471483E-3        1.471483E-3
8.125090E-1        9.076810E-8        1.512802E-3        1.512802E-3
8.218940E-1        9.314500E-8        1.552417E-3        1.552417E-3
8.312750E-1        9.564050E-8        1.594008E-3        1.594008E-3
8.406270E-1        9.806050E-8        1.634342E-3        1.634342E-3
8.500130E-1        1.005950E-7        1.676583E-3        1.676583E-3
8.594010E-1        1.030360E-7        1.717267E-3        1.717267E-3
8.687830E-1        1.061220E-7        1.768700E-3        1.768700E-3
8.781330E-1        1.087420E-7        1.812367E-3        1.812367E-3
8.875180E-1        1.115130E-7        1.858550E-3        1.858550E-3
8.969070E-1        1.140330E-7        1.900550E-3        1.900550E-3
9.062500E-1        1.169160E-7        1.948600E-3        1.948600E-3
9.156350E-1        1.197220E-7        1.995367E-3        1.995367E-3
9.250220E-1        1.224410E-7        2.040683E-3        2.040683E-3
9.344070E-1        1.252390E-7        2.087317E-3        2.087317E-3
9.437530E-1        1.282120E-7        2.136867E-3        2.136867E-3
9.531380E-1        1.309590E-7        2.182650E-3        2.182650E-3
9.625310E-1        1.339170E-7        2.231950E-3        2.231950E-3
9.719080E-1        1.366780E-7        2.277967E-3        2.277967E-3
9.812570E-1        1.397680E-7        2.329467E-3        2.329467E-3
9.906400E-1        1.427600E-7        2.379333E-3        2.379333E-3
1.000030E+0        1.458870E-7        2.431450E-3        2.431450E-3



Voc (V)                3.999370E-1

Jsc (ma/cm^2)        -1.726150E-3

Fill Factor        2.225772E-1

Power convertion efficiency        -1.536564E-6

Lamp Power        1.000000E+2



