2014-4-7        21:18

Voltage(V)           Current(A)           Current_density(mA/cm^2)           ABS(Current_density)

-5.000550E-1        -3.679370E-4        -6.132283E+0        6.132283E+0
-4.906690E-1        -3.597930E-4        -5.996550E+0        5.996550E+0
-4.812840E-1        -3.514640E-4        -5.857733E+0        5.857733E+0
-4.719000E-1        -3.433910E-4        -5.723183E+0        5.723183E+0
-4.625520E-1        -3.351780E-4        -5.586300E+0        5.586300E+0
-4.531680E-1        -3.270260E-4        -5.450433E+0        5.450433E+0
-4.437840E-1        -3.188200E-4        -5.313667E+0        5.313667E+0
-4.343960E-1        -3.107630E-4        -5.179383E+0        5.179383E+0
-4.250090E-1        -3.027360E-4        -5.045600E+0        5.045600E+0
-4.156640E-1        -2.948080E-4        -4.913467E+0        4.913467E+0
-4.062760E-1        -2.868970E-4        -4.781617E+0        4.781617E+0
-3.968910E-1        -2.791540E-4        -4.652567E+0        4.652567E+0
-3.875020E-1        -2.715020E-4        -4.525033E+0        4.525033E+0
-3.781560E-1        -2.639140E-4        -4.398567E+0        4.398567E+0
-3.687680E-1        -2.563750E-4        -4.272917E+0        4.272917E+0
-3.593820E-1        -2.489900E-4        -4.149833E+0        4.149833E+0
-3.499970E-1        -2.416600E-4        -4.027667E+0        4.027667E+0
-3.406500E-1        -2.344570E-4        -3.907617E+0        3.907617E+0
-3.312630E-1        -2.274000E-4        -3.790000E+0        3.790000E+0
-3.218780E-1        -2.204820E-4        -3.674700E+0        3.674700E+0
-3.124900E-1        -2.137220E-4        -3.562033E+0        3.562033E+0
-3.031090E-1        -2.069840E-4        -3.449733E+0        3.449733E+0
-2.937590E-1        -2.004460E-4        -3.340767E+0        3.340767E+0
-2.843720E-1        -1.940010E-4        -3.233350E+0        3.233350E+0
-2.749860E-1        -1.877090E-4        -3.128483E+0        3.128483E+0
-2.656000E-1        -1.815020E-4        -3.025033E+0        3.025033E+0
-2.562500E-1        -1.754770E-4        -2.924617E+0        2.924617E+0
-2.468660E-1        -1.695420E-4        -2.825700E+0        2.825700E+0
-2.374820E-1        -1.637390E-4        -2.728983E+0        2.728983E+0
-2.280970E-1        -1.581510E-4        -2.635850E+0        2.635850E+0
-2.187080E-1        -1.525460E-4        -2.542433E+0        2.542433E+0
-2.093590E-1        -1.471470E-4        -2.452450E+0        2.452450E+0
-1.999690E-1        -1.419190E-4        -2.365317E+0        2.365317E+0
-1.905930E-1        -1.367680E-4        -2.279467E+0        2.279467E+0
-1.812200E-1        -1.317910E-4        -2.196517E+0        2.196517E+0
-1.718460E-1        -1.268950E-4        -2.114917E+0        2.114917E+0
-1.624790E-1        -1.221880E-4        -2.036467E+0        2.036467E+0
-1.531040E-1        -1.175580E-4        -1.959300E+0        1.959300E+0
-1.437310E-1        -1.131310E-4        -1.885517E+0        1.885517E+0
-1.343560E-1        -1.087140E-4        -1.811900E+0        1.811900E+0
-1.249840E-1        -1.044830E-4        -1.741383E+0        1.741383E+0
-1.156090E-1        -1.003480E-4        -1.672467E+0        1.672467E+0
-1.062320E-1        -9.639860E-5        -1.606643E+0        1.606643E+0
-9.685350E-2        -9.251590E-5        -1.541932E+0        1.541932E+0
-8.747810E-2        -8.714970E-5        -1.452495E+0        1.452495E+0
-7.810410E-2        -8.350990E-5        -1.391832E+0        1.391832E+0
-6.872840E-2        -8.000550E-5        -1.333425E+0        1.333425E+0
-5.935220E-2        -7.661490E-5        -1.276915E+0        1.276915E+0
-4.997410E-2        -7.330980E-5        -1.221830E+0        1.221830E+0
-4.059950E-2        -7.012460E-5        -1.168743E+0        1.168743E+0
-3.122010E-2        -6.704270E-5        -1.117378E+0        1.117378E+0
-2.184210E-2        -6.405660E-5        -1.067610E+0        1.067610E+0
-1.246510E-2        -6.117640E-5        -1.019607E+0        1.019607E+0
-3.085110E-3        -5.838840E-5        -9.731400E-1        9.731400E-1
6.198670E-3        -5.571440E-5        -9.285733E-1        9.285733E-1
1.557370E-2        -5.313420E-5        -8.855700E-1        8.855700E-1
2.495130E-2        -5.064730E-5        -8.441217E-1        8.441217E-1
3.432850E-2        -4.824250E-5        -8.040417E-1        8.040417E-1
4.370230E-2        -4.593660E-5        -7.656100E-1        7.656100E-1
5.308250E-2        -4.370050E-5        -7.283417E-1        7.283417E-1
6.245680E-2        -4.155450E-5        -6.925750E-1        6.925750E-1
7.183210E-2        -3.949900E-5        -6.583167E-1        6.583167E-1
8.120940E-2        -3.751590E-5        -6.252650E-1        6.252650E-1
9.058360E-2        -3.561540E-5        -5.935900E-1        5.935900E-1
9.995710E-2        -3.380080E-5        -5.633467E-1        5.633467E-1
1.093350E-1        -3.204540E-5        -5.340900E-1        5.340900E-1
1.187060E-1        -3.037380E-5        -5.062300E-1        5.062300E-1
1.280800E-1        -2.876750E-5        -4.794583E-1        4.794583E-1
1.374550E-1        -2.723110E-5        -4.538517E-1        4.538517E-1
1.468270E-1        -2.575470E-5        -4.292450E-1        4.292450E-1
1.562000E-1        -2.434640E-5        -4.057733E-1        4.057733E-1
1.655730E-1        -2.299400E-5        -3.832333E-1        3.832333E-1
1.749470E-1        -2.170790E-5        -3.617983E-1        3.617983E-1
1.843190E-1        -2.047670E-5        -3.412783E-1        3.412783E-1
1.936910E-1        -1.930260E-5        -3.217100E-1        3.217100E-1
2.030830E-1        -1.817770E-5        -3.029617E-1        3.029617E-1
2.124350E-1        -1.710640E-5        -2.851067E-1        2.851067E-1
2.218230E-1        -1.607700E-5        -2.679500E-1        2.679500E-1
2.312120E-1        -1.510290E-5        -2.517150E-1        2.517150E-1
2.405920E-1        -1.417410E-5        -2.362350E-1        2.362350E-1
2.499470E-1        -1.329350E-5        -2.215583E-1        2.215583E-1
2.593320E-1        -1.245810E-5        -2.076350E-1        2.076350E-1
2.687200E-1        -1.166220E-5        -1.943700E-1        1.943700E-1
2.781020E-1        -1.090220E-5        -1.817033E-1        1.817033E-1
2.874550E-1        -1.018730E-5        -1.697883E-1        1.697883E-1
2.968380E-1        -9.504910E-6        -1.584152E-1        1.584152E-1
3.062290E-1        -8.852010E-6        -1.475335E-1        1.475335E-1
3.156130E-1        -8.236050E-6        -1.372675E-1        1.372675E-1
3.249630E-1        -7.657530E-6        -1.276255E-1        1.276255E-1
3.343530E-1        -7.107790E-6        -1.184632E-1        1.184632E-1
3.437420E-1        -6.587910E-6        -1.097985E-1        1.097985E-1
3.531260E-1        -6.098070E-6        -1.016345E-1        1.016345E-1
3.624780E-1        -5.635010E-6        -9.391683E-2        9.391683E-2
3.718640E-1        -5.193290E-6        -8.655483E-2        8.655483E-2
3.812510E-1        -4.779210E-6        -7.965350E-2        7.965350E-2
3.906320E-1        -4.388060E-6        -7.313433E-2        7.313433E-2
3.999870E-1        -4.019650E-6        -6.699417E-2        6.699417E-2
4.093730E-1        -3.673400E-6        -6.122333E-2        6.122333E-2
4.187580E-1        -3.348040E-6        -5.580067E-2        5.580067E-2
4.281410E-1        -3.040020E-6        -5.066700E-2        5.066700E-2
4.374940E-1        -2.751710E-6        -4.586183E-2        4.586183E-2
4.468820E-1        -2.481670E-6        -4.136117E-2        4.136117E-2
4.562670E-1        -2.226460E-6        -3.710767E-2        3.710767E-2
4.656150E-1        -1.987080E-6        -3.311800E-2        3.311800E-2
4.749980E-1        -1.761960E-6        -2.936600E-2        2.936600E-2
4.843860E-1        -1.549660E-6        -2.582767E-2        2.582767E-2
4.937760E-1        -1.350520E-6        -2.250867E-2        2.250867E-2
5.031230E-1        -1.163090E-6        -1.938483E-2        1.938483E-2
5.125110E-1        -9.867190E-7        -1.644532E-2        1.644532E-2
5.219000E-1        -8.182760E-7        -1.363793E-2        1.363793E-2
5.312850E-1        -6.799100E-7        -1.133183E-2        1.133183E-2
5.406320E-1        -5.294570E-7        -8.824283E-3        8.824283E-3
5.500200E-1        -3.856380E-7        -6.427300E-3        6.427300E-3
5.594080E-1        -2.477750E-7        -4.129583E-3        4.129583E-3
5.687910E-1        -1.137270E-7        -1.895450E-3        1.895450E-3
5.781360E-1        1.399640E-8        2.332733E-4        2.332733E-4
5.875190E-1        1.410130E-7        2.350217E-3        2.350217E-3
5.969070E-1        2.652620E-7        4.421033E-3        4.421033E-3
6.062910E-1        3.910080E-7        6.516800E-3        6.516800E-3
6.156380E-1        5.161390E-7        8.602317E-3        8.602317E-3
6.250260E-1        6.436380E-7        1.072730E-2        1.072730E-2
6.344110E-1        7.739140E-7        1.289857E-2        1.289857E-2
6.437940E-1        9.080250E-7        1.513375E-2        1.513375E-2
6.531470E-1        1.046170E-6        1.743617E-2        1.743617E-2
6.625330E-1        1.190770E-6        1.984617E-2        1.984617E-2
6.719210E-1        1.365950E-6        2.276583E-2        2.276583E-2
6.813060E-1        1.526930E-6        2.544883E-2        2.544883E-2
6.906530E-1        1.695240E-6        2.825400E-2        2.825400E-2
7.000390E-1        1.874880E-6        3.124800E-2        3.124800E-2
7.094260E-1        2.065560E-6        3.442600E-2        3.442600E-2
7.188060E-1        2.267000E-6        3.778333E-2        3.778333E-2
7.281550E-1        2.479570E-6        4.132617E-2        4.132617E-2
7.375460E-1        2.706630E-6        4.511050E-2        4.511050E-2
7.469320E-1        2.948830E-6        4.914717E-2        4.914717E-2
7.563150E-1        3.204390E-6        5.340650E-2        5.340650E-2
7.656650E-1        3.475510E-6        5.792517E-2        5.792517E-2
7.750520E-1        3.764710E-6        6.274517E-2        6.274517E-2
7.844360E-1        4.068530E-6        6.780883E-2        6.780883E-2
7.938190E-1        4.389810E-6        7.316350E-2        7.316350E-2
8.031690E-1        4.731140E-6        7.885233E-2        7.885233E-2
8.125520E-1        5.091480E-6        8.485800E-2        8.485800E-2
8.219380E-1        5.472860E-6        9.121433E-2        9.121433E-2
8.313210E-1        5.873730E-6        9.789550E-2        9.789550E-2
8.406710E-1        6.292260E-6        1.048710E-1        1.048710E-1
8.500570E-1        6.737320E-6        1.122887E-1        1.122887E-1
8.594470E-1        7.205820E-6        1.200970E-1        1.200970E-1
8.688280E-1        7.698570E-6        1.283095E-1        1.283095E-1
8.781750E-1        8.214840E-6        1.369140E-1        1.369140E-1
8.875620E-1        8.755430E-6        1.459238E-1        1.459238E-1
8.969460E-1        9.323070E-6        1.553845E-1        1.553845E-1
9.062910E-1        9.918990E-6        1.653165E-1        1.653165E-1
9.156770E-1        1.054490E-5        1.757483E-1        1.757483E-1
9.250620E-1        1.119900E-5        1.866500E-1        1.866500E-1
9.344470E-1        1.188050E-5        1.980083E-1        1.980083E-1
9.437940E-1        1.259280E-5        2.098800E-1        2.098800E-1
9.531820E-1        1.334320E-5        2.223867E-1        2.223867E-1
9.625710E-1        1.412570E-5        2.354283E-1        2.354283E-1
9.719520E-1        1.493730E-5        2.489550E-1        2.489550E-1
9.813020E-1        1.578340E-5        2.630567E-1        2.630567E-1
9.906880E-1        1.667050E-5        2.778417E-1        2.778417E-1
1.000070E+0        1.759640E-5        2.932733E-1        2.932733E-1



Voc (V)                5.781360E-1

Jsc (ma/cm^2)        -9.731400E-1

Fill Factor        1.127840E-1

Power convertion efficiency        -6.345309E-4

Lamp Power        1.000000E+2



